# Cross sections for 1-methyl-cyclohexyl-1,2-dinitrate
# from the book of Calvert et al. (2011):
# The Mechanisms of Atmospheric Oxidation of the Oxygenates,
# Oxford University Press, 2011.
#
# Values were digitized from their Fig. IX-I-8.
#
# λ/nm	σ/1E-20 cm2
260.148		11.9602
260.742		11.8745
261.336		11.7243
261.93		11.6172
262.45		11.4885
263.043		11.4028
263.563		11.2526
264.157		11.1454
264.751		11.0383
265.196		10.9096
265.79		10.7809
266.31		10.6522
266.829		10.545
267.423		10.4164
267.943		10.2877
268.462		10.1376
268.908		10.0089
269.502		9.90169
269.947		9.77299
270.541		9.64434
271.06		9.51566
271.58		9.38699
272.1		9.25831
272.619		9.10817
273.213		9.00099
273.733		8.87231
274.252		8.74364
274.846		8.63646
275.292		8.50776
275.885		8.37911
276.405		8.25043
276.925		8.10028
277.519		7.9931
278.038		7.86443
278.558		7.73575
279.077		7.60708
279.597		7.45693
280.042		7.30676
280.488		7.17806
281.007		7.04939
281.527		6.89924
281.972		6.74907
282.418		6.5989
282.863		6.44873
283.309		6.29856
283.828		6.16989
284.274		6.01972
284.719		5.86955
285.239		5.74087
285.758		5.59072
286.278		5.46205
286.723		5.31188
287.243		5.16173
287.837		5.05455
288.356		4.9044
288.876		4.7972
289.396		4.64705
289.915		4.53985
290.435		4.41118
290.954		4.26103
291.4		4.11086
291.994		3.98221
292.439		3.83204
292.959		3.70336
293.478		3.59616
293.924		3.46746
294.443		3.31731
294.963		3.18864
295.483		3.05996
296.002		2.93129
296.596		2.80264
297.116		2.67396
297.635		2.54529
298.229		2.41663
298.749		2.28796
299.268		2.18076
299.788		2.05208
300.382		1.92343
300.976		1.81625
301.495		1.70905
302.089		1.60187
302.609		1.47319
303.277		1.34456
303.945		1.25888
304.539		1.17317
305.207		1.08749
305.801		1.02325
306.469		1.00198
307.211		0.959267
307.953		0.938022
308.621		0.916755
309.364		0.89551
310.106		0.831321
310.774		0.788581
311.442		0.724369
312.185		0.681652
312.853		0.617439
313.521		0.531755
314.189		0.467543
314.857		0.40333
315.08		0.360454
315.599		0.382086
316.267		0.339346
316.935		0.296606
317.529		0.253843
318.568		0.189745
319.459		0.168546
320.276		0.125851
321.463		0.104743
322.577		0.0621401
325.000		0.00
